Interference and Diffraction Data File Wed, Oct 05, 2022 4:01 PM
Sensor Position (Meters)	Light Intensity (Volts)
0.00000	-0.00534
0.00000	-0.00582
0.00000	-0.00792
0.00000	-0.00792
0.00000	-0.01001
0.00000	-0.00856
0.00000	-0.00904
0.00000	-0.00937
0.00000	-0.00888
0.00000	-0.00486
0.00000	-0.00695
0.00000	-0.00985
0.00000	-0.00663
0.00000	-0.00727
0.00000	-0.00775
0.00000	-0.00631
0.00000	-0.00502
0.00000	-0.00856
0.00000	-0.00969
0.00000	-0.00582
0.00000	-0.00937
0.00000	-0.00743
0.00000	-0.01001
0.00000	-0.01130
-0.00006	-0.00598
-0.00006	-0.00775
-0.00011	-0.01081
-0.00011	-0.00727
-0.00011	-0.00872
-0.00017	-0.00679
-0.00017	-0.00937
-0.00022	-0.00421
-0.00022	-0.00808
-0.00022	-0.00695
-0.00028	-0.00920
-0.00028	-0.00792
-0.00033	-0.00711
-0.00033	-0.00727
-0.00033	-0.00759
-0.00039	-0.00582
-0.00039	-0.00453
-0.00039	-0.00695
-0.00044	-0.00373
-0.00044	-0.00518
-0.00044	-0.00711
-0.00050	-0.00614
-0.00050	-0.00631
-0.00056	-0.00937
-0.00056	-0.00759
-0.00056	-0.00985
-0.00061	-0.00953
-0.00061	-0.00759
-0.00067	-0.01194
-0.00067	-0.00534
-0.00067	-0.00550
-0.00072	-0.00631
-0.00072	-0.00550
-0.00072	-0.00453
-0.00078	-0.00647
-0.00078	-0.00631
-0.00083	-0.00679
-0.00083	-0.00711
-0.00089	-0.00647
-0.00089	-0.00582
-0.00089	-0.01081
-0.00094	-0.00792
-0.00094	-0.01049
-0.00094	-0.00985
-0.00100	-0.00792
-0.00100	-0.00759
-0.00106	-0.00840
-0.00106	-0.00856
-0.00111	-0.00824
-0.00111	-0.00856
-0.00111	-0.00904
-0.00117	-0.00679
-0.00117	-0.00518
-0.00117	-0.00711
-0.00122	-0.00953
-0.00122	-0.00502
-0.00128	-0.00663
-0.00128	-0.00598
-0.00128	-0.00679
-0.00133	-0.01049
-0.00133	-0.00647
-0.00133	-0.00743
-0.00139	-0.00663
-0.00139	-0.00663
-0.00144	-0.00711
-0.00144	-0.00775
-0.00144	-0.00566
-0.00150	-0.00743
-0.00150	-0.00985
-0.00156	-0.00389
-0.00156	-0.00083
-0.00156	-0.00727
-0.00161	-0.00743
-0.00161	-0.00792
-0.00161	-0.00759
-0.00167	-0.00453
-0.00167	-0.00856
-0.00172	-0.01178
-0.00172	-0.00953
-0.00172	-0.00647
-0.00178	-0.00373
-0.00178	-0.00453
-0.00183	-0.00904
-0.00183	-0.00357
-0.00183	-0.00614
-0.00189	-0.00679
-0.00189	-0.00953
-0.00194	-0.00534
-0.00194	-0.00969
-0.00194	-0.00937
-0.00200	-0.00486
-0.00200	-0.00486
-0.00206	-0.00920
-0.00206	-0.00679
-0.00206	-0.00614
-0.00211	-0.00808
-0.00211	-0.00856
-0.00211	-0.00808
-0.00217	-0.00582
-0.00217	-0.01001
-0.00222	-0.00550
-0.00222	-0.00920
-0.00222	-0.00582
-0.00228	-0.00453
-0.00228	-0.00695
-0.00228	-0.00711
-0.00233	-0.00566
-0.00233	-0.00614
-0.00239	-0.00437
-0.00239	-0.00647
-0.00239	-0.00566
-0.00244	-0.00920
-0.00244	-0.00566
-0.00244	-0.00357
-0.00250	-0.00518
-0.00250	-0.00550
-0.00256	-0.00888
-0.00256	-0.00904
-0.00256	-0.00647
-0.00261	-0.00598
-0.00261	-0.00019
-0.00267	-0.00727
-0.00267	-0.00341
-0.00267	-0.00937
-0.00272	-0.00647
-0.00272	-0.00518
-0.00278	-0.00550
-0.00278	-0.00566
-0.00278	-0.01017
-0.00283	-0.00534
-0.00283	-0.00631
-0.00289	-0.00453
-0.00289	-0.00888
-0.00289	-0.00453
-0.00294	-0.00631
-0.00294	-0.00824
-0.00294	-0.00904
-0.00300	-0.00486
-0.00300	-0.00534
-0.00306	-0.00743
-0.00306	-0.00743
-0.00306	-0.00470
-0.00311	-0.00631
-0.00311	-0.00775
-0.00311	-0.00502
-0.00317	-0.00598
-0.00317	-0.00663
-0.00322	-0.00582
-0.00322	-0.00566
-0.00322	-0.00614
-0.00328	-0.00534
-0.00328	-0.00566
-0.00333	-0.01049
-0.00333	-0.00775
-0.00333	-0.01033
-0.00339	-0.00663
-0.00339	-0.00679
-0.00339	-0.00663
-0.00344	-0.00470
-0.00344	-0.00534
-0.00350	-0.00325
-0.00350	-0.00437
-0.00350	-0.00631
-0.00356	-0.00566
-0.00356	-0.00260
-0.00361	-0.00373
-0.00361	-0.00518
-0.00361	-0.00759
-0.00367	-0.00631
-0.00367	-0.00534
-0.00372	-0.00792
-0.00372	-0.00679
-0.00372	-0.00308
-0.00378	-0.00582
-0.00378	-0.00453
-0.00378	-0.00743
-0.00383	-0.00453
-0.00383	-0.00582
-0.00383	-0.00534
-0.00389	-0.00920
-0.00389	-0.00920
-0.00394	-0.00244
-0.00394	-0.00421
-0.00394	-0.00663
-0.00400	-0.00292
-0.00400	-0.00953
-0.00400	-0.00550
-0.00406	-0.00518
-0.00406	-0.00164
-0.00406	-0.00631
-0.00411	-0.00260
-0.00411	-0.00888
-0.00417	-0.00550
-0.00417	-0.00872
-0.00417	-0.00308
-0.00422	-0.00711
-0.00422	-0.00534
-0.00428	-0.00518
-0.00428	-0.00470
-0.00428	-0.00453
-0.00433	-0.00727
-0.00433	-0.00470
-0.00439	-0.00389
-0.00439	-0.00582
-0.00439	-0.00743
-0.00444	-0.00325
-0.00444	-0.00759
-0.00444	-0.00486
-0.00450	-0.00631
-0.00450	-0.00325
-0.00456	-0.00486
-0.00456	-0.00631
-0.00456	-0.00598
-0.00461	-0.00759
-0.00461	-0.00711
-0.00461	-0.00373
-0.00467	-0.00727
-0.00467	-0.00534
-0.00467	-0.00147
-0.00472	-0.00808
-0.00472	-0.00373
-0.00472	-0.00582
-0.00478	-0.00164
-0.00478	-0.00582
-0.00483	-0.00341
-0.00483	-0.00244
-0.00483	-0.00453
-0.00489	-0.00228
-0.00489	-0.00292
-0.00489	-0.00437
-0.00494	-0.00582
-0.00494	-0.00308
-0.00500	-0.00244
-0.00500	0.00078
-0.00500	-0.00260
-0.00506	-0.00389
-0.00506	-0.00308
-0.00506	-0.00099
-0.00511	-0.00244
-0.00511	-0.00002
-0.00517	-0.00131
-0.00517	0.00014
-0.00517	-0.00180
-0.00522	0.00046
-0.00522	-0.00019
-0.00528	-0.00196
-0.00528	-0.00276
-0.00528	-0.00131
-0.00533	-0.00083
-0.00533	-0.00325
-0.00533	-0.00260
-0.00539	-0.00180
-0.00539	0.00014
-0.00544	-0.00308
-0.00544	-0.00276
-0.00544	-0.00228
-0.00550	-0.00325
-0.00550	-0.00180
-0.00550	-0.00164
-0.00556	-0.00228
-0.00556	-0.00131
-0.00556	-0.00325
-0.00561	-0.00308
-0.00561	-0.00131
-0.00561	-0.00244
-0.00567	-0.00453
-0.00567	0.00094
-0.00572	0.00030
-0.00572	-0.00212
-0.00572	-0.00341
-0.00578	-0.00453
-0.00578	-0.00276
-0.00578	-0.00260
-0.00583	-0.00099
-0.00583	-0.00099
-0.00589	-0.00051
-0.00589	-0.00212
-0.00589	-0.00534
-0.00594	-0.00308
-0.00594	-0.00357
-0.00600	-0.00325
-0.00600	-0.00115
-0.00600	0.00094
-0.00606	-0.00147
-0.00606	-0.00180
-0.00606	-0.00357
-0.00611	-0.00180
-0.00611	0.00175
-0.00617	-0.00212
-0.00617	-0.00067
-0.00617	0.00384
-0.00622	0.00030
-0.00622	-0.00164
-0.00622	-0.00180
-0.00628	0.00432
-0.00628	0.00142
-0.00628	-0.00051
-0.00633	0.00287
-0.00633	0.00159
-0.00639	0.00287
-0.00639	0.00497
-0.00639	0.00626
-0.00644	-0.00019
-0.00644	0.00142
-0.00644	0.00416
-0.00650	0.00384
-0.00650	0.00239
-0.00650	0.00287
-0.00656	0.00110
-0.00656	0.00336
-0.00661	0.00384
-0.00661	0.00062
-0.00661	0.00191
-0.00667	0.00046
-0.00667	0.00175
-0.00667	0.00336
-0.00672	0.00561
-0.00672	0.00159
-0.00678	0.00030
-0.00678	0.00159
-0.00678	0.00400
-0.00683	0.00545
-0.00683	0.00352
-0.00683	0.00239
-0.00689	0.00142
-0.00689	0.00465
-0.00694	0.00271
-0.00694	0.00352
-0.00694	0.00400
-0.00700	0.00271
-0.00700	0.00094
-0.00706	0.00255
-0.00706	0.00481
-0.00706	0.00465
-0.00711	0.00465
-0.00711	0.00561
-0.00711	0.00384
-0.00717	0.00690
-0.00717	0.00513
-0.00717	0.00416
-0.00722	0.00835
-0.00722	0.00626
-0.00722	0.00561
-0.00728	0.00787
-0.00728	0.01205
-0.00733	0.01254
-0.00733	0.00964
-0.00733	0.01672
-0.00739	0.01109
-0.00739	0.01463
-0.00739	0.01511
-0.00744	0.01431
-0.00744	0.01141
-0.00750	0.01592
-0.00750	0.01640
-0.00750	0.01672
-0.00756	0.01769
-0.00756	0.01882
-0.00756	0.02075
-0.00761	0.01962
-0.00761	0.01914
-0.00767	0.01898
-0.00767	0.02075
-0.00767	0.02542
-0.00772	0.02413
-0.00772	0.02735
-0.00778	0.02220
-0.00778	0.02784
-0.00778	0.02478
-0.00783	0.02751
-0.00783	0.02606
-0.00783	0.02462
-0.00789	0.02284
-0.00789	0.02848
-0.00789	0.02558
-0.00794	0.02542
-0.00794	0.03122
-0.00800	0.02751
-0.00800	0.02606
-0.00800	0.02462
-0.00806	0.02462
-0.00806	0.02365
-0.00806	0.02655
-0.00811	0.02558
-0.00811	0.02623
-0.00811	0.02413
-0.00817	0.02574
-0.00817	0.02429
-0.00822	0.02558
-0.00822	0.02590
-0.00822	0.02800
-0.00828	0.02671
-0.00828	0.02574
-0.00828	0.03122
-0.00833	0.02864
-0.00833	0.02945
-0.00839	0.03009
-0.00839	0.03154
-0.00839	0.03621
-0.00844	0.03814
-0.00844	0.04104
-0.00844	0.04169
-0.00850	0.04829
-0.00850	0.05103
-0.00856	0.05489
-0.00856	0.05811
-0.00856	0.06117
-0.00861	0.06713
-0.00861	0.07357
-0.00867	0.07277
-0.00867	0.07969
-0.00867	0.08549
-0.00872	0.09097
-0.00872	0.10192
-0.00872	0.10900
-0.00878	0.11528
-0.00878	0.12302
-0.00878	0.13348
-0.00883	0.14331
-0.00883	0.15233
-0.00889	0.15619
-0.00889	0.16102
-0.00889	0.17358
-0.00894	0.19339
-0.00894	0.20563
-0.00894	0.20402
-0.00900	0.21691
-0.00900	0.23688
-0.00900	0.25475
-0.00906	0.26264
-0.00906	0.26570
-0.00911	0.27617
-0.00911	0.30532
-0.00911	0.31998
-0.00917	0.32110
-0.00917	0.33044
-0.00917	0.34687
-0.00922	0.37860
-0.00922	0.38697
-0.00928	0.38101
-0.00928	0.39873
-0.00928	0.43593
-0.00933	0.44157
-0.00933	0.43384
-0.00933	0.44141
-0.00939	0.46733
-0.00939	0.48553
-0.00944	0.49036
-0.00944	0.48746
-0.00944	0.48118
-0.00950	0.47796
-0.00950	0.49487
-0.00956	0.51613
-0.00956	0.52902
-0.00956	0.53175
-0.00961	0.52241
-0.00961	0.51001
-0.00961	0.51082
-0.00967	0.53111
-0.00967	0.55414
-0.00972	0.55575
-0.00972	0.54190
-0.00972	0.52708
-0.00978	0.53707
-0.00978	0.56058
-0.00978	0.56364
-0.00983	0.53417
-0.00983	0.53046
-0.00983	0.53739
-0.00989	0.55607
-0.00989	0.55060
-0.00994	0.52547
-0.00994	0.51211
-0.00994	0.52547
-0.01000	0.53417
-0.01000	0.50840
-0.01000	0.47845
-0.01006	0.48779
-0.01006	0.49632
-0.01011	0.47297
-0.01011	0.44189
-0.01017	0.43786
-0.01017	0.44463
-0.01017	0.42997
-0.01022	0.39631
-0.01022	0.38423
-0.01022	0.39051
-0.01028	0.37699
-0.01028	0.34719
-0.01033	0.32738
-0.01033	0.32899
-0.01033	0.32593
-0.01039	0.29936
-0.01039	0.27376
-0.01039	0.27134
-0.01044	0.26812
-0.01044	0.25217
-0.01050	0.23140
-0.01050	0.21658
-0.01050	0.20773
-0.01056	0.20499
-0.01056	0.18840
-0.01056	0.16988
-0.01061	0.15828
-0.01061	0.15603
-0.01067	0.14347
-0.01067	0.12946
-0.01067	0.11722
-0.01072	0.11641
-0.01072	0.11013
-0.01078	0.09870
-0.01078	0.09000
-0.01078	0.08404
-0.01083	0.07663
-0.01083	0.07035
-0.01083	0.06456
-0.01089	0.05521
-0.01089	0.05215
-0.01094	0.04716
-0.01094	0.04362
-0.01094	0.03847
-0.01100	0.03605
-0.01100	0.03138
-0.01106	0.02800
-0.01106	0.03041
-0.01106	0.02429
-0.01111	0.02494
-0.01111	0.02349
-0.01117	0.02091
-0.01117	0.01882
-0.01117	0.01995
-0.01122	0.01576
-0.01122	0.01366
-0.01122	0.01785
-0.01128	0.01737
-0.01128	0.01753
-0.01133	0.01640
-0.01133	0.01318
-0.01133	0.01350
-0.01139	0.01415
-0.01139	0.01447
-0.01139	0.01334
-0.01144	0.01608
-0.01144	0.01511
-0.01150	0.01544
-0.01150	0.01350
-0.01150	0.01511
-0.01156	0.01721
-0.01156	0.01479
-0.01156	0.01318
-0.01161	0.01415
-0.01161	0.01447
-0.01167	0.01141
-0.01167	0.01286
-0.01167	0.01415
-0.01172	0.01270
-0.01172	0.01302
-0.01178	0.01431
-0.01178	0.01238
-0.01178	0.01350
-0.01183	0.01270
-0.01183	0.01286
-0.01189	0.01318
-0.01189	0.01479
-0.01189	0.01205
-0.01194	0.01254
-0.01194	0.01238
-0.01194	0.01012
-0.01200	0.01028
-0.01200	0.01077
-0.01206	0.00674
-0.01206	0.01077
-0.01206	0.00819
-0.01211	0.00610
-0.01211	0.00320
-0.01217	0.00771
-0.01217	0.00915
-0.01217	0.00577
-0.01222	0.00320
-0.01222	0.00287
-0.01222	0.00384
-0.01228	0.00448
-0.01228	0.00159
-0.01228	0.00545
-0.01233	0.00110
-0.01233	0.00046
-0.01239	0.00368
-0.01239	0.00416
-0.01239	0.00094
-0.01244	0.00062
-0.01244	0.00513
-0.01244	0.00110
-0.01250	0.00094
-0.01250	-0.00099
-0.01256	0.00142
-0.01256	0.00126
-0.01256	0.00448
-0.01261	0.00545
-0.01261	0.00287
-0.01267	0.00336
-0.01267	0.00384
-0.01267	0.00271
-0.01272	0.00046
-0.01272	0.00320
-0.01272	0.00448
-0.01278	0.00513
-0.01278	-0.00035
-0.01283	0.00481
-0.01283	0.00400
-0.01283	0.00207
-0.01289	0.00513
-0.01289	0.00175
-0.01289	0.00062
-0.01294	0.00175
-0.01294	0.00787
-0.01294	-0.00099
-0.01300	0.00207
-0.01300	0.00320
-0.01306	0.00287
-0.01306	0.00400
-0.01306	0.00561
-0.01311	0.00432
-0.01311	0.00191
-0.01311	-0.00067
-0.01317	0.00126
-0.01317	0.00126
-0.01317	0.00094
-0.01322	0.00014
-0.01322	0.00030
-0.01328	0.00062
-0.01328	0.00191
-0.01328	0.00030
-0.01333	-0.00228
-0.01333	-0.00228
-0.01333	-0.00437
-0.01339	0.00062
-0.01339	-0.00421
-0.01344	-0.00421
-0.01344	-0.00292
-0.01344	-0.00002
-0.01350	-0.00115
-0.01350	-0.00341
-0.01356	-0.00260
-0.01356	-0.00196
-0.01356	-0.00051
-0.01361	-0.00405
-0.01361	-0.00389
-0.01361	-0.00276
-0.01367	-0.00260
-0.01367	-0.00212
-0.01367	-0.00373
-0.01372	0.00014
-0.01372	-0.00164
-0.01378	-0.00534
-0.01378	-0.00357
-0.01378	-0.00341
-0.01383	-0.00502
-0.01383	-0.00453
-0.01383	-0.00840
-0.01389	-0.00180
-0.01389	-0.00486
-0.01389	-0.00147
-0.01394	-0.00582
-0.01394	-0.00180
-0.01400	-0.00164
-0.01400	-0.00276
-0.01400	-0.00308
-0.01400	-0.00019
-0.01406	-0.00164
-0.01406	-0.00341
-0.01411	-0.00341
-0.01411	-0.00228
-0.01411	-0.00147
-0.01417	-0.00437
-0.01417	-0.00598
-0.01422	-0.00486
-0.01422	-0.00550
-0.01422	-0.00083
-0.01428	-0.00212
-0.01428	-0.00470
-0.01428	-0.00341
-0.01433	-0.00341
-0.01433	-0.00582
-0.01439	-0.00631
-0.01439	-0.00437
-0.01439	-0.00453
-0.01444	-0.00228
-0.01444	-0.00502
-0.01444	-0.00437
-0.01450	-0.00631
-0.01450	-0.00470
-0.01450	-0.00582
-0.01456	-0.00453
-0.01456	-0.00453
-0.01461	-0.00453
-0.01461	-0.00276
-0.01461	-0.00502
-0.01467	-0.00308
-0.01467	-0.00582
-0.01467	-0.00405
-0.01472	-0.00292
-0.01472	-0.00775
-0.01472	-0.00711
-0.01478	-0.00566
-0.01478	-0.00470
-0.01478	-0.00969
-0.01483	-0.00502
-0.01483	-0.00518
-0.01483	-0.00711
-0.01489	-0.00679
-0.01489	-0.00550
-0.01494	-0.00598
-0.01494	-0.00582
-0.01494	-0.00985
-0.01500	-0.00244
-0.01500	-0.00389
-0.01500	-0.00502
-0.01506	-0.00598
-0.01506	-0.00808
-0.01511	-0.00582
-0.01511	-0.00534
-0.01511	-0.00357
-0.01517	-0.00824
-0.01517	-0.00598
-0.01517	-0.00453
-0.01522	-0.00534
-0.01522	-0.00292
-0.01528	-0.00486
-0.01528	-0.00856
-0.01528	-0.00405
-0.01533	-0.00872
-0.01533	-0.00437
-0.01533	-0.00647
-0.01539	-0.00614
-0.01539	-0.00808
-0.01539	-0.00373
-0.01544	-0.00421
-0.01544	-0.00775
-0.01550	-0.00502
-0.01550	-0.00598
-0.01550	-0.00244
-0.01556	-0.00614
-0.01556	-0.00631
-0.01556	-0.00550
-0.01561	-0.00566
-0.01561	-0.00389
-0.01561	-0.00647
-0.01567	-0.00711
-0.01567	-0.00212
-0.01567	-0.00904
-0.01572	-0.00824
-0.01572	-0.00534
-0.01578	-0.00228
-0.01578	-0.00502
-0.01578	-0.00566
-0.01583	-0.00598
-0.01583	-0.00518
-0.01583	-0.00695
-0.01589	-0.00405
-0.01589	-0.00743
-0.01594	-0.00631
-0.01594	-0.00437
-0.01594	-0.00824
-0.01600	-0.00405
-0.01600	-0.00808
-0.01600	-0.00502
-0.01606	-0.00614
-0.01606	-0.00582
-0.01611	-0.00727
-0.01611	-0.00470
-0.01611	-0.00598
-0.01617	-0.00389
-0.01617	-0.00872
-0.01617	-0.00856
-0.01622	-0.00792
-0.01622	-0.00582
-0.01628	-0.00969
-0.01628	-0.00598
-0.01628	-0.00502
-0.01633	-0.00937
-0.01633	-0.00598
-0.01633	-0.00437
-0.01639	-0.00453
-0.01639	-0.00663
-0.01639	-0.00711
-0.01644	-0.00598
-0.01644	-0.00679
-0.01644	-0.00743
-0.01650	-0.00711
-0.01650	-0.00534
-0.01656	-0.00164
-0.01656	-0.00405
-0.01656	-0.00679
-0.01661	-0.00502
-0.01661	-0.00357
-0.01661	-0.00566
-0.01667	-0.00743
-0.01667	-0.01081
-0.01672	-0.00872
-0.01672	-0.00759
-0.01672	-0.00421
-0.01678	-0.00792
-0.01678	-0.00711
-0.01683	-0.00373
-0.01683	-0.00308
-0.01683	-0.00647
-0.01689	-0.00421
-0.01689	-0.00663
-0.01689	-0.00937
-0.01694	-0.01001
-0.01694	-0.00663
-0.01694	-0.00405
-0.01700	-0.00470
-0.01700	-0.00502
-0.01706	-0.00534
-0.01706	-0.00663
-0.01706	-0.00453
-0.01711	-0.00808
-0.01711	-0.00920
-0.01711	-0.00453
-0.01717	-0.01162
-0.01717	-0.00566
-0.01717	-0.00341
-0.01722	-0.00598
-0.01722	-0.00373
-0.01728	-0.00727
-0.01728	-0.00695
-0.01728	-0.00695
-0.01733	-0.00888
-0.01733	-0.00969
-0.01733	-0.00969
-0.01739	-0.00518
-0.01739	-0.00759
-0.01744	-0.01001
-0.01744	-0.01017
-0.01744	-0.00486
-0.01750	-0.00727
-0.01750	-0.00872
-0.01750	-0.00679
-0.01756	-0.00550
-0.01756	-0.00969
-0.01756	-0.01033
-0.01761	-0.01098
-0.01761	-0.00792
-0.01767	-0.00502
-0.01767	-0.00743
-0.01767	-0.00550
-0.01772	-0.00856
-0.01772	-0.00421
-0.01778	-0.00631
-0.01778	-0.00679
-0.01778	-0.00824
-0.01783	-0.00582
-0.01783	-0.00759
-0.01783	-0.00486
-0.01789	-0.00904
-0.01789	-0.00453
-0.01789	-0.00904
-0.01794	-0.00631
-0.01794	-0.00534
-0.01794	-0.00566
-0.01800	-0.00679
-0.01800	-0.00953
-0.01800	-0.00711
-0.01806	-0.00566
-0.01806	-0.00389
-0.01811	-0.01065
-0.01811	-0.00775
-0.01811	-0.00598
-0.01817	-0.00759
-0.01817	-0.00389
-0.01822	-0.00647
-0.01822	-0.00421
-0.01822	-0.00808
-0.01828	-0.00598
-0.01828	-0.00598
-0.01828	-0.00357
-0.01833	-0.00566
-0.01833	-0.00550
-0.01839	-0.00631
-0.01839	-0.00647
-0.01839	-0.00598
-0.01844	-0.00792
-0.01844	-0.00775
-0.01844	-0.00582
-0.01850	-0.00470
-0.01850	-0.00631
-0.01856	-0.00292
-0.01856	-0.00743
-0.01856	-0.00888
-0.01861	-0.00775
-0.01861	-0.00759
-0.01867	-0.00840
-0.01867	-0.00840
-0.01867	-0.00663
-0.01872	-0.00663
-0.01872	-0.00743
-0.01872	-0.00904
-0.01878	-0.00614
-0.01878	-0.00518
-0.01878	-0.00598
-0.01883	-0.00566
-0.01883	-0.00647
-0.01883	-0.00518
-0.01889	-0.00582
-0.01889	-0.00470
-0.01889	-0.00631
-0.01894	-0.00502
-0.01894	-0.00308
-0.01900	-0.00808
-0.01900	-0.01114
-0.01900	-0.00856
-0.01906	-0.00775
-0.01906	-0.00518
-0.01911	-0.00260
-0.01911	-0.01500
-0.01911	-0.00695
-0.01917	-0.00759
-0.01917	-0.00872
-0.01922	-0.00470
-0.01922	-0.00276
-0.01922	-0.00824
-0.01928	-0.00759
-0.01928	-0.00743
-0.01933	-0.00437
-0.01933	-0.00647
-0.01933	-0.00840
-0.01939	-0.00663
-0.01939	-0.00759
-0.01939	-0.00373
-0.01944	-0.00389
-0.01944	-0.00647
-0.01950	-0.00647
-0.01950	-0.00389
-0.01950	-0.00421
-0.01956	-0.00180
-0.01956	-0.00904
-0.01956	-0.00695
-0.01961	-0.00679
-0.01961	-0.00598
-0.01961	-0.00614
-0.01967	-0.00582
-0.01967	-0.00631
-0.01972	-0.00614
-0.01972	-0.00614
-0.01972	-0.00792
-0.01978	-0.00486
-0.01978	-0.00647